# Oscilloscope file ./20201025_013827.bin
# Channel 2
Time / s;Voltage / V
0;0.004
0.25;0.012
0.5;-0.004
0.75;0.004
1;0.004
1.25;0.012
1.5;-0.002
1.75;0.002
2;0.002
2.25;0.012
2.5;-0.006
2.75;0.004
3;0.004
3.25;0.012
3.5;-0.004
3.75;0.002
4;0.004
4.25;0.012
4.5;-0.002
4.75;0.004
5;0
5.25;0.014
5.5;-0.004
5.75;0.006
6;0.002
6.25;0.01
6.5;-0.004
6.75;0.002
7;0.002
7.25;0.01
7.5;-0.002
7.75;0.002
8;0.004
8.25;0.012
8.5;-0.006
8.75;0.004
9;0.002
9.25;0.01
9.5;-0.004
9.75;0.002
10;0.002
10.25;0.012
10.5;-0.004
10.75;0.002
11;0.004
11.25;0.01
11.5;-0.002
11.75;0.004
12;0.002
12.25;0.01
12.5;-0.002
12.75;0.002
13;0.002
13.25;0.012
13.5;-0.002
13.75;0
14;0
14.25;0.01
14.5;-0.004
14.75;0.004
15;0.002
15.25;0.01
15.5;-0.004
15.75;0.002
16;0
16.25;0.01
16.5;-0.002
16.75;0.002
17;0.002
17.25;0.012
17.5;-0.002
17.75;0
18;0.002
18.25;0.012
18.5;-0.002
18.75;0.002
19;0.002
19.25;0.012
19.5;-0.002
19.75;0.002
20;0.004
20.25;0.012
20.5;-0.002
20.75;0.004
21;0.004
21.25;0.014
21.5;0
21.75;0.004
22;0.002
22.25;0.014
22.5;0
22.75;0.004
23;0.004
23.25;0.014
23.5;0
23.75;0.006
24;0.004
24.25;0.014
24.5;0.002
24.75;0.006
25;0.006
25.25;0.014
25.5;0
25.75;0.006
26;0.006
26.25;0.016
26.5;0.002
26.75;0.008
27;0.006
27.25;0.016
27.5;0.002
27.75;0.008
28;0.008
28.25;0.016
28.5;0.004
28.75;0.006
29;0.008
29.25;0.016
29.5;0.004
29.75;0.014
30;0.008
30.25;0.016
30.5;0.004
30.75;0.008
31;0.006
31.25;0.018
31.5;0.004
31.75;0.01
32;0.012
32.25;0.018
32.5;0.004
32.75;0.01
33;0.01
33.25;0.018
33.5;0.004
33.75;0.012
34;0.01
34.25;0.018
34.5;0.006
34.75;0.012
35;0.012
35.25;0.02
35.5;0.006
35.75;0.012
36;0.01
36.25;0.02
36.5;0.006
36.75;0.012
37;0.014
37.25;0.02
37.5;0.008
37.75;0.012
38;0.012
38.25;0.024
38.5;0.006
38.75;0.014
39;0.01
39.25;0.022
39.5;0.008
39.75;0.014
40;0.016
40.25;0.022
40.5;0.008
40.75;0.016
41;0.016
41.25;0.022
41.5;0.01
41.75;0.016
42;0.016
42.25;0.022
42.5;0.008
42.75;0.014
43;0.016
43.25;0.024
43.5;0.01
43.75;0.016
44;0.016
44.25;0.024
44.5;0.01
44.75;0.016
45;0.018
45.25;0.024
45.5;0.01
45.75;0.016
46;0.022
46.25;0.026
46.5;0.012
46.75;0.018
47;0.018
47.25;0.024
47.5;0.012
47.75;0.018
48;0.018
48.25;0.024
48.5;0.012
48.75;0.018
49;0.02
49.25;0.026
49.5;0.012
49.75;0.018
50;0.018
50.25;0.028
50.5;0.012
50.75;0.018
51;0.018
51.25;0.028
51.5;0.014
51.75;0.02
52;0.02
52.25;0.026
52.5;0.014
52.75;0.018
53;0.02
53.25;0.028
53.5;0.014
53.75;0.022
54;0.02
54.25;0.028
54.5;0.014
54.75;0.022
55;0.02
55.25;0.03
55.5;0.016
55.75;0.022
56;0.022
56.25;0.03
56.5;0.016
56.75;0.024
57;0.022
57.25;0.03
57.5;0.016
57.75;0.022
58;0.022
58.25;0.03
58.5;0.018
58.75;0.024
59;0.024
59.25;0.032
59.5;0.018
59.75;0.024
60;0.024
60.25;0.03
60.5;0.018
60.75;0.024
61;0.024
61.25;0.032
61.5;0.018
61.75;0.024
62;0.026
62.25;0.032
62.5;0.018
62.75;0.026
63;0.03
63.25;0.034
63.5;0.018
63.75;0.024
64;0.026
64.25;0.034
64.5;0.02
64.75;0.026
65;0.024
65.25;0.034
65.5;0.018
65.75;0.026
66;0.028
66.25;0.034
66.5;0.02
66.75;0.028
67;0.026
67.25;0.036
67.5;0.022
67.75;0.028
68;0.028
68.25;0.036
68.5;0.022
68.75;0.026
69;0.028
69.25;0.036
69.5;0.022
69.75;0.028
70;0.03
70.25;0.036
70.5;0.022
70.75;0.03
71;0.03
71.25;0.036
71.5;0.022
71.75;0.028
72;0.03
72.25;0.036
72.5;0.022
72.75;0.03
73;0.03
73.25;0.038
73.5;0.024
73.75;0.028
74;0.03
74.25;0.038
74.5;0.024
74.75;0.032
75;0.032
75.25;0.038
75.5;0.026
75.75;0.032
76;0.032
76.25;0.038
76.5;0.026
76.75;0.032
77;0.032
77.25;0.04
77.5;0.024
77.75;0.032
78;0.032
78.25;0.04
78.5;0.026
78.75;0.034
79;0.034
79.25;0.04
79.5;0.026
79.75;0.032
80;0.032
80.25;0.04
80.5;0.028
80.75;0.034
81;0.034
81.25;0.042
81.5;0.028
81.75;0.034
82;0.034
82.25;0.042
82.5;0.028
82.75;0.034
83;0.036
83.25;0.042
83.5;0.028
83.75;0.036
84;0.038
84.25;0.044
84.5;0.03
84.75;0.034
85;0.034
85.25;0.042
85.5;0.03
85.75;0.036
86;0.036
86.25;0.044
86.5;0.03
86.75;0.036
87;0.036
87.25;0.044
87.5;0.03
87.75;0.036
88;0.038
88.25;0.044
88.5;0.032
88.75;0.038
89;0.036
89.25;0.046
89.5;0.032
89.75;0.036
90;0.038
90.25;0.048
90.5;0.032
90.75;0.038
91;0.036
91.25;0.046
91.5;0.032
91.75;0.038
92;0.038
92.25;0.046
92.5;0.032
92.75;0.038
93;0.04
93.25;0.046
93.5;0.034
93.75;0.04
94;0.04
94.25;0.046
94.5;0.032
94.75;0.04
95;0.04
95.25;0.048
95.5;0.034
95.75;0.04
96;0.042
96.25;0.074
96.5;0.034
96.75;0.04
97;0.042
97.25;0.048
97.5;0.036
97.75;0.04
98;0.046
98.25;0.048
98.5;0.034
98.75;0.042
99;0.042
99.25;0.05
99.5;0.036
99.75;0.042
100;0.042
100.25;0.05
100.5;0.036
100.75;0.042
101;0.042
101.25;0.05
101.5;0.036
101.75;0.04
102;0.042
102.25;0.052
102.5;0.038
102.75;0.04
103;0.044
103.25;0.052
103.5;0.036
103.75;0.042
104;0.046
104.25;0.052
104.5;0.038
104.75;0.044
105;0.044
105.25;0.052
105.5;0.04
105.75;0.046
106;0.046
106.25;0.054
106.5;0.04
106.75;0.048
107;0.046
107.25;0.054
107.5;0.04
107.75;0.046
108;0.046
108.25;0.054
108.5;0.04
108.75;0.048
109;0.046
109.25;0.054
109.5;0.04
109.75;0.046
110;0.046
110.25;0.054
110.5;0.042
110.75;0.046
111;0.046
111.25;0.056
111.5;0.04
111.75;0.048
112;0.048
112.25;0.056
112.5;0.042
112.75;0.048
113;0.046
113.25;0.056
113.5;0.042
113.75;0.048
114;0.048
114.25;0.056
114.5;0.042
114.75;0.048
115;0.048
115.25;0.058
115.5;0.044
115.75;0.052
116;0.048
116.25;0.058
116.5;0.044
116.75;0.056
117;0.048
117.25;0.06
117.5;0.044
117.75;0.05
118;0.05
118.25;0.058
118.5;0.046
118.75;0.05
119;0.05
119.25;0.06
119.5;0.046
119.75;0.052
120;0.054
120.25;0.06
120.5;0.046
120.75;0.05
121;0.052
121.25;0.06
121.5;0.046
121.75;0.054
122;0.052
122.25;0.06
122.5;0.046
122.75;0.054
123;0.054
123.25;0.06
123.5;0.048
123.75;0.052
124;0.054
124.25;0.062
124.5;0.048
124.75;0.052
125;0.056
125.25;0.062
125.5;0.048
125.75;0.054
126;0.062
126.25;0.062
126.5;0.048
126.75;0.054
127;0.052
127.25;0.062
127.5;0.05
127.75;0.056
128;0.062
128.25;0.064
128.5;0.05
128.75;0.056
129;0.054
129.25;0.064
129.5;0.05
129.75;0.054
130;0.056
130.25;0.064
130.5;0.05
130.75;0.056
131;0.056
131.25;0.064
131.5;0.05
131.75;0.056
132;0.056
132.25;0.066
132.5;0.05
132.75;0.056
133;0.056
133.25;0.066
133.5;0.052
133.75;0.056
134;0.058
134.25;0.066
134.5;0.052
134.75;0.058
135;0.058
135.25;0.066
135.5;0.052
135.75;0.058
136;0.058
136.25;0.066
136.5;0.052
136.75;0.058
137;0.062
137.25;0.066
137.5;0.052
137.75;0.06
138;0.06
138.25;0.068
138.5;0.054
138.75;0.06
139;0.058
139.25;0.068
139.5;0.054
139.75;0.06
140;0.06
140.25;0.068
140.5;0.056
140.75;0.06
141;0.062
141.25;0.07
141.5;0.056
141.75;0.06
142;0.062
142.25;0.07
142.5;0.058
142.75;0.062
143;0.062
143.25;0.07
143.5;0.056
143.75;0.062
144;0.062
144.25;0.072
144.5;0.056
144.75;0.064
145;0.064
145.25;0.072
145.5;0.058
145.75;0.064
146;0.064
146.25;0.072
146.5;0.06
146.75;0.064
147;0.066
147.25;0.072
147.5;0.06
147.75;0.064
148;0.064
148.25;0.074
148.5;0.06
148.75;0.064
149;0.064
149.25;0.074
149.5;0.062
149.75;0.066
150;0.066
150.25;0.076
150.5;0.06
150.75;0.068
151;0.066
151.25;0.076
151.5;0.06
151.75;0.068
152;0.066
152.25;0.076
152.5;0.06
152.75;0.066
153;0.066
153.25;0.076
153.5;0.062
153.75;0.068
154;0.068
154.25;0.078
154.5;0.062
154.75;0.068
155;0.066
155.25;0.076
155.5;0.062
155.75;0.068
156;0.068
156.25;0.076
156.5;0.062
156.75;0.066
157;0.068
157.25;0.076
157.5;0.062
157.75;0.068
158;0.068
158.25;0.076
158.5;0.062
158.75;0.068
159;0.068
159.25;0.076
159.5;0.062
159.75;0.068
160;0.068
160.25;0.076
160.5;0.062
160.75;0.07
161;0.068
161.25;0.078
161.5;0.064
161.75;0.07
162;0.07
162.25;0.078
162.5;0.064
162.75;0.07
163;0.07
163.25;0.078
163.5;0.064
163.75;0.07
164;0.072
164.25;0.078
164.5;0.064
164.75;0.074
165;0.07
165.25;0.08
165.5;0.064
165.75;0.072
166;0.07
166.25;0.08
166.5;0.066
166.75;0.072
167;0.07
167.25;0.08
167.5;0.066
167.75;0.072
168;0.074
168.25;0.08
168.5;0.066
168.75;0.072
169;0.07
169.25;0.082
169.5;0.066
169.75;0.07
170;0.074
170.25;0.082
170.5;0.068
170.75;0.07
171;0.072
171.25;0.084
171.5;0.068
171.75;0.074
172;0.074
172.25;0.084
172.5;0.07
172.75;0.076
173;0.074
173.25;0.084
173.5;0.07
173.75;0.076
174;0.076
174.25;0.084
174.5;0.072
174.75;0.074
175;0.078
175.25;0.086
175.5;0.072
175.75;0.076
176;0.076
176.25;0.086
176.5;0.074
176.75;0.078
177;0.078
177.25;0.088
177.5;0.074
177.75;0.078
178;0.08
178.25;0.088
178.5;0.074
178.75;0.08
179;0.08
179.25;0.09
179.5;0.076
179.75;0.082
180;0.08
180.25;0.09
180.5;0.076
180.75;0.082
181;0.082
181.25;0.092
181.5;0.076
181.75;0.08
182;0.084
182.25;0.092
182.5;0.078
182.75;0.082
183;0.082
183.25;0.092
183.5;0.078
183.75;0.084
184;0.088
184.25;0.092
184.5;0.08
184.75;0.082
185;0.084
185.25;0.094
185.5;0.078
185.75;0.086
186;0.086
186.25;0.094
186.5;0.08
186.75;0.086
187;0.086
187.25;0.096
187.5;0.082
187.75;0.086
188;0.086
188.25;0.096
188.5;0.082
188.75;0.092
189;0.088
189.25;0.096
189.5;0.082
189.75;0.086
190;0.086
190.25;0.096
190.5;0.082
190.75;0.088
191;0.09
191.25;0.098
191.5;0.082
191.75;0.088
192;0.09
192.25;0.096
192.5;0.082
192.75;0.084
193;0.09
193.25;0.096
193.5;0.082
193.75;0.088
194;0.086
194.25;0.098
194.5;0.084
194.75;0.086
195;0.088
195.25;0.098
195.5;0.084
195.75;0.088
196;0.088
196.25;0.098
196.5;0.084
196.75;0.088
197;0.09
197.25;0.098
197.5;0.082
197.75;0.09
198;0.09
198.25;0.098
198.5;0.084
198.75;0.088
199;0.088
199.25;0.098
199.5;0.084
199.75;0.094
200;0.092
200.25;0.098
200.5;0.084
200.75;0.09
201;0.09
201.25;0.098
201.5;0.084
201.75;0.09
202;0.086
202.25;0.098
202.5;0.084
202.75;0.092
203;0.09
203.25;0.098
203.5;0.084
203.75;0.09
204;0.088
204.25;0.098
204.5;0.084
204.75;0.09
205;0.088
205.25;0.098
205.5;0.084
205.75;0.09
206;0.088
206.25;0.098
206.5;0.084
206.75;0.09
207;0.09
207.25;0.098
207.5;0.084
207.75;0.09
208;0.088
208.25;0.098
208.5;0.084
208.75;0.09
209;0.088
209.25;0.1
209.5;0.084
209.75;0.09
210;0.09
210.25;0.1
210.5;0.084
210.75;0.088
211;0.09
211.25;0.098
211.5;0.084
211.75;0.092
212;0.088
212.25;0.1
212.5;0.084
212.75;0.09
213;0.092
213.25;0.098
213.5;0.084
213.75;0.088
214;0.088
214.25;0.1
214.5;0.086
214.75;0.09
215;0.092
215.25;0.1
215.5;0.084
215.75;0.092
216;0.094
216.25;0.1
216.5;0.086
216.75;0.094
217;0.09
217.25;0.1
217.5;0.086
217.75;0.088
218;0.088
218.25;0.1
218.5;0.086
218.75;0.094
219;0.094
219.25;0.1
219.5;0.086
219.75;0.094
220;0.096
220.25;0.102
220.5;0.088
220.75;0.094
221;0.092
221.25;0.102
221.5;0.088
221.75;0.094
222;0.092
222.25;0.102
222.5;0.088
222.75;0.092
223;0.094
223.25;0.104
223.5;0.088
223.75;0.094
224;0.094
224.25;0.102
224.5;0.09
224.75;0.102
225;0.098
225.25;0.106
225.5;0.09
225.75;0.1
226;0.098
226.25;0.104
226.5;0.09
226.75;0.098
227;0.096
227.25;0.106
227.5;0.09
227.75;0.098
228;0.1
228.25;0.106
228.5;0.092
228.75;0.1
229;0.098
229.25;0.108
229.5;0.094
229.75;0.1
230;0.098
230.25;0.108
230.5;0.092
230.75;0.1
231;0.096
231.25;0.108
231.5;0.094
231.75;0.102
232;0.102
232.25;0.11
232.5;0.096
232.75;0.104
233;0.104
233.25;0.112
233.5;0.096
233.75;0.104
234;0.106
234.25;0.112
234.5;0.098
234.75;0.104
235;0.106
235.25;0.112
235.5;0.098
235.75;0.108
236;0.106
236.25;0.112
236.5;0.1
236.75;0.108
237;0.106
237.25;0.116
237.5;0.1
237.75;0.108
238;0.108
238.25;0.116
238.5;0.1
238.75;0.106
239;0.108
239.25;0.116
239.5;0.102
239.75;0.108
240;0.11
240.25;0.118
240.5;0.104
240.75;0.11
241;0.112
241.25;0.12
241.5;0.106
241.75;0.112
242;0.114
242.25;0.12
242.5;0.106
242.75;0.114
243;0.114
243.25;0.122
243.5;0.106
243.75;0.114
244;0.114
244.25;0.124
244.5;0.108
244.75;0.114
245;0.116
245.25;0.124
245.5;0.11
245.75;0.118
246;0.116
246.25;0.124
246.5;0.11
246.75;0.118
247;0.118
247.25;0.126
247.5;0.112
247.75;0.122
248;0.116
248.25;0.126
248.5;0.114
248.75;0.12
249;0.12
249.25;0.128
249.5;0.114
249.75;0.122
250;0.12
250.25;0.13
250.5;0.116
250.75;0.12
251;0.122
251.25;0.13
251.5;0.116
251.75;0.124
252;0.124
252.25;0.13
252.5;0.118
252.75;0.128
253;0.124
253.25;0.134
253.5;0.118
253.75;0.124
254;0.126
254.25;0.134
254.5;0.12
254.75;0.126
255;0.126
255.25;0.134
255.5;0.12
255.75;0.126
256;0.126
256.25;0.134
256.5;0.12
256.75;0.128
257;0.128
257.25;0.136
257.5;0.122
257.75;0.128
258;0.128
258.25;0.136
258.5;0.122
258.75;0.128
259;0.13
259.25;0.138
259.5;0.124
259.75;0.128
260;0.13
260.25;0.138
260.5;0.124
260.75;0.132
261;0.13
261.25;0.138
261.5;0.124
261.75;0.132
262;0.132
262.25;0.138
262.5;0.126
262.75;0.132
263;0.13
263.25;0.138
263.5;0.124
263.75;0.13
264;0.13
264.25;0.14
264.5;0.126
264.75;0.134
265;0.132
265.25;0.14
265.5;0.124
265.75;0.134
266;0.134
266.25;0.14
266.5;0.126
266.75;0.132
267;0.134
267.25;0.14
267.5;0.126
267.75;0.136
268;0.132
268.25;0.14
268.5;0.126
268.75;0.13
269;0.13
269.25;0.142
269.5;0.126
269.75;0.128
270;0.134
270.25;0.142
270.5;0.126
270.75;0.132
271;0.134
271.25;0.14
271.5;0.126
271.75;0.132
272;0.134
272.25;0.14
272.5;0.126
272.75;0.13
273;0.132
273.25;0.142
273.5;0.126
273.75;0.132
274;0.132
274.25;0.142
274.5;0.126
274.75;0.134
275;0.132
275.25;0.142
275.5;0.126
275.75;0.136
276;0.132
276.25;0.142
276.5;0.126
276.75;0.132
277;0.132
277.25;0.142
277.5;0.126
277.75;0.136
278;0.134
278.25;0.142
278.5;0.126
278.75;0.132
279;0.136
279.25;0.142
279.5;0.128
279.75;0.134
280;0.13
280.25;0.142
280.5;0.128
280.75;0.132
281;0.134
281.25;0.142
281.5;0.124
281.75;0.136
282;0.134
282.25;0.142
282.5;0.126
282.75;0.136
283;0.134
283.25;0.142
283.5;0.128
283.75;0.136
284;0.132
284.25;0.142
284.5;0.126
284.75;0.132
285;0.136
285.25;0.142
285.5;0.128
285.75;0.134
286;0.132
286.25;0.142
286.5;0.126
286.75;0.132
287;0.136
287.25;0.142
287.5;0.126
287.75;0.132
288;0.132
288.25;0.14
288.5;0.128
288.75;0.136
289;0.136
289.25;0.142
289.5;0.126
289.75;0.134
290;0.134
290.25;0.142
290.5;0.126
290.75;0.134
291;0.138
291.25;0.142
291.5;0.126
291.75;0.134
292;0.136
292.25;0.142
292.5;0.126
292.75;0.13
293;0.134
293.25;0.142
293.5;0.128
293.75;0.13
294;0.134
294.25;0.14
294.5;0.128
294.75;0.13
295;0.136
295.25;0.142
295.5;0.126
295.75;0.132
296;0.134
296.25;0.142
296.5;0.126
296.75;0.13
297;0.136
297.25;0.142
297.5;0.128
297.75;0.132
298;0.134
298.25;0.142
298.5;0.128
298.75;0.136
299;0.134
299.25;0.142
299.5;0.128
299.75;0.132
300;0.128
300.25;0.142
300.5;0.126
300.75;0.13
301;0.132
301.25;0.142
301.5;0.126
301.75;0.132
302;0.132
302.25;0.142
302.5;0.126
302.75;0.132
303;0.13
303.25;0.142
303.5;0.126
303.75;0.13
304;0.13
304.25;0.142
304.5;0.128
304.75;0.13
305;0.132
305.25;0.142
305.5;0.126
305.75;0.138
306;0.134
306.25;0.14
306.5;0.126
306.75;0.134
307;0.134
307.25;0.142
307.5;0.126
307.75;0.132
308;0.134
308.25;0.142
308.5;0.126
308.75;0.134
309;0.132
309.25;0.14
309.5;0.126
309.75;0.132
310;0.134
310.25;0.142
310.5;0.126
310.75;0.136
311;0.132
311.25;0.144
311.5;0.126
311.75;0.134
312;0.134
312.25;0.142
312.5;0.126
312.75;0.132
313;0.134
313.25;0.142
313.5;0.126
313.75;0.13
314;0.132
314.25;0.142
314.5;0.126
314.75;0.136
315;0.13
315.25;0.14
315.5;0.126
315.75;0.134
316;0.136
316.25;0.14
316.5;0.126
316.75;0.132
317;0.136
317.25;0.14
317.5;0.126
317.75;0.13
318;0.134
318.25;0.142
318.5;0.126
318.75;0.13
319;0.134
319.25;0.14
319.5;0.126
319.75;0.132
320;0.13
320.25;0.142
320.5;0.128
320.75;0.132
321;0.128
321.25;0.142
321.5;0.126
321.75;0.134
322;0.132
322.25;0.142
322.5;0.126
322.75;0.134
323;0.136
323.25;0.14
323.5;0.128
323.75;0.13
324;0.132
324.25;0.14
324.5;0.126
324.75;0.134
325;0.136
325.25;0.142
325.5;0.128
325.75;0.134
326;0.134
326.25;0.142
326.5;0.126
326.75;0.134
327;0.134
327.25;0.142
327.5;0.128
327.75;0.134
328;0.132
328.25;0.142
328.5;0.126
328.75;0.134
329;0.134
329.25;0.142
329.5;0.128
329.75;0.136
330;0.134
330.25;0.142
330.5;0.128
330.75;0.134
331;0.134
331.25;0.142
331.5;0.128
331.75;0.132
332;0.136
332.25;0.142
332.5;0.128
332.75;0.134
333;0.134
333.25;0.142
333.5;0.128
333.75;0.134
334;0.132
334.25;0.142
334.5;0.128
334.75;0.136
335;0.14
335.25;0.142
335.5;0.128
335.75;0.136
336;0.134
336.25;0.144
336.5;0.128
336.75;0.136
337;0.136
337.25;0.142
337.5;0.13
337.75;0.134
338;0.136
338.25;0.144
338.5;0.13
338.75;0.136
339;0.138
339.25;0.144
339.5;0.13
339.75;0.138
340;0.136
340.25;0.144
340.5;0.13
340.75;0.136
341;0.138
341.25;0.146
341.5;0.132
341.75;0.136
342;0.138
342.25;0.146
342.5;0.132
342.75;0.138
343;0.138
343.25;0.146
343.5;0.132
343.75;0.14
344;0.14
344.25;0.148
344.5;0.132
344.75;0.138
345;0.138
345.25;0.148
345.5;0.134
345.75;0.14
346;0.144
346.25;0.148
346.5;0.132
346.75;0.14
347;0.14
347.25;0.148
347.5;0.134
347.75;0.14
348;0.142
348.25;0.148
348.5;0.134
348.75;0.14
349;0.142
349.25;0.15
349.5;0.136
349.75;0.142
350;0.144
350.25;0.15
350.5;0.136
350.75;0.14
351;0.142
351.25;0.152
351.5;0.138
351.75;0.144
352;0.142
352.25;0.152
352.5;0.138
352.75;0.14
353;0.144
353.25;0.154
353.5;0.14
353.75;0.146
354;0.142
354.25;0.154
354.5;0.14
354.75;0.146
355;0.146
355.25;0.156
355.5;0.14
355.75;0.146
356;0.146
356.25;0.154
356.5;0.142
356.75;0.148
357;0.15
357.25;0.158
357.5;0.142
357.75;0.148
358;0.148
358.25;0.158
358.5;0.142
358.75;0.15
359;0.148
359.25;0.158
359.5;0.144
359.75;0.15
360;0.15
360.25;0.16
360.5;0.144
360.75;0.152
361;0.15
361.25;0.158
361.5;0.144
361.75;0.152
362;0.152
362.25;0.16
362.5;0.146
362.75;0.152
363;0.15
363.25;0.162
363.5;0.146
363.75;0.152
364;0.152
364.25;0.162
364.5;0.148
364.75;0.154
365;0.154
365.25;0.162
365.5;0.148
365.75;0.152
366;0.154
366.25;0.164
366.5;0.15
366.75;0.154
367;0.154
367.25;0.164
367.5;0.15
367.75;0.154
368;0.152
368.25;0.164
368.5;0.152
368.75;0.158
369;0.156
369.25;0.164
369.5;0.152
369.75;0.158
370;0.158
370.25;0.166
370.5;0.152
370.75;0.158
371;0.16
371.25;0.166
371.5;0.152
371.75;0.16
372;0.16
372.25;0.168
372.5;0.154
372.75;0.162
373;0.16
373.25;0.17
373.5;0.154
373.75;0.16
374;0.162
374.25;0.17
374.5;0.156
374.75;0.162
375;0.16
375.25;0.17
375.5;0.158
375.75;0.162
376;0.166
376.25;0.17
376.5;0.158
376.75;0.162
377;0.164
377.25;0.172
377.5;0.158
377.75;0.164
378;0.164
378.25;0.172
378.5;0.16
378.75;0.166
379;0.166
379.25;0.174
379.5;0.158
379.75;0.166
380;0.166
380.25;0.174
380.5;0.16
380.75;0.166
381;0.168
381.25;0.174
381.5;0.16
381.75;0.166
382;0.166
382.25;0.176
382.5;0.16
382.75;0.168
383;0.168
383.25;0.178
383.5;0.162
383.75;0.166
384;0.168
384.25;0.176
384.5;0.16
384.75;0.17
385;0.17
385.25;0.178
385.5;0.164
385.75;0.17
386;0.17
386.25;0.178
386.5;0.164
386.75;0.17
387;0.172
387.25;0.178
387.5;0.164
387.75;0.174
388;0.172
388.25;0.18
388.5;0.166
388.75;0.174
389;0.174
389.25;0.18
389.5;0.166
389.75;0.174
390;0.174
390.25;0.18
390.5;0.166
390.75;0.174
391;0.174
391.25;0.182
391.5;0.166
391.75;0.174
392;0.174
392.25;0.182
392.5;0.168
392.75;0.174
393;0.174
393.25;0.182
393.5;0.168
393.75;0.176
394;0.176
394.25;0.184
394.5;0.17
394.75;0.176
395;0.176
395.25;0.184
395.5;0.172
395.75;0.178
396;0.178
396.25;0.186
396.5;0.172
396.75;0.176
397;0.18
397.25;0.186
397.5;0.172
397.75;0.178
398;0.176
398.25;0.186
398.5;0.174
398.75;0.18
399;0.18
399.25;0.188
399.5;0.172
399.75;0.18
400;0.178
400.25;0.188
400.5;0.174
400.75;0.18
401;0.182
401.25;0.22
401.5;0.174
401.75;0.182
402;0.18
402.25;0.19
402.5;0.176
402.75;0.182
403;0.184
403.25;0.192
403.5;0.178
403.75;0.184
404;0.182
404.25;0.192
404.5;0.178
404.75;0.184
405;0.184
405.25;0.192
405.5;0.178
405.75;0.186
406;0.19
406.25;0.194
406.5;0.18
406.75;0.186
407;0.186
407.25;0.206
407.5;0.18
407.75;0.186
408;0.186
408.25;0.206
408.5;0.182
408.75;0.188
409;0.188
409.25;0.196
409.5;0.182
409.75;0.188
410;0.19
410.25;0.198
410.5;0.184
410.75;0.19
411;0.19
411.25;0.2
411.5;0.184
411.75;0.19
412;0.192
412.25;0.2
412.5;0.186
412.75;0.192
413;0.192
413.25;0.2
413.5;0.188
413.75;0.196
414;0.192
414.25;0.204
414.5;0.188
414.75;0.194
415;0.196
415.25;0.204
415.5;0.19
415.75;0.196
416;0.194
416.25;0.206
416.5;0.19
416.75;0.196
417;0.198
417.25;0.206
417.5;0.192
417.75;0.198
418;0.198
418.25;0.206
418.5;0.194
418.75;0.2
419;0.2
419.25;0.208
419.5;0.194
419.75;0.202
420;0.2
420.25;0.21
420.5;0.196
420.75;0.206
421;0.202
421.25;0.212
421.5;0.198
421.75;0.204
422;0.204
422.25;0.212
422.5;0.2
422.75;0.208
423;0.206
423.25;0.214
423.5;0.2
423.75;0.206
424;0.208
424.25;0.214
424.5;0.202
424.75;0.208
425;0.208
425.25;0.218
425.5;0.202
425.75;0.21
426;0.21
426.25;0.218
426.5;0.204
426.75;0.21
427;0.216
427.25;0.22
427.5;0.204
427.75;0.212
428;0.214
428.25;0.22
428.5;0.206
428.75;0.214
429;0.214
429.25;0.222
429.5;0.208
429.75;0.216
430;0.214
430.25;0.228
430.5;0.21
430.75;0.218
431;0.218
431.25;0.226
431.5;0.212
431.75;0.22
432;0.22
432.25;0.228
432.5;0.212
432.75;0.22
433;0.222
433.25;0.228
433.5;0.214
433.75;0.224
434;0.222
434.25;0.23
434.5;0.216
434.75;0.226
435;0.224
435.25;0.232
435.5;0.218
435.75;0.226
436;0.226
436.25;0.234
436.5;0.22
436.75;0.228
437;0.224
437.25;0.236
437.5;0.22
437.75;0.232
438;0.23
438.25;0.238
438.5;0.224
438.75;0.232
439;0.232
439.25;0.238
439.5;0.226
439.75;0.232
440;0.232
440.25;0.242
440.5;0.226
440.75;0.234
441;0.234
441.25;0.242
441.5;0.228
441.75;0.236
442;0.234
442.25;0.244
442.5;0.23
442.75;0.236
443;0.238
443.25;0.244
443.5;0.23
443.75;0.238
444;0.24
444.25;0.248
444.5;0.232
444.75;0.24
445;0.238
445.25;0.248
445.5;0.234
445.75;0.242
446;0.242
446.25;0.25
446.5;0.234
446.75;0.242
447;0.242
447.25;0.252
447.5;0.236
447.75;0.242
448;0.242
448.25;0.252
448.5;0.238
448.75;0.246
449;0.244
449.25;0.254
449.5;0.238
449.75;0.246
450;0.246
450.25;0.254
450.5;0.24
450.75;0.25
451;0.248
451.25;0.254
451.5;0.242
451.75;0.248
452;0.248
452.25;0.256
452.5;0.242
452.75;0.25
453;0.248
453.25;0.258
453.5;0.244
453.75;0.25
454;0.25
454.25;0.258
454.5;0.246
454.75;0.254
455;0.252
455.25;0.26
455.5;0.246
455.75;0.252
456;0.252
456.25;0.262
456.5;0.246
456.75;0.252
457;0.254
457.25;0.264
457.5;0.248
457.75;0.254
458;0.254
458.25;0.264
458.5;0.25
458.75;0.254
459;0.256
459.25;0.262
459.5;0.248
459.75;0.256
460;0.256
460.25;0.266
460.5;0.25
460.75;0.258
461;0.256
461.25;0.266
461.5;0.25
461.75;0.256
462;0.256
462.25;0.264
462.5;0.252
462.75;0.258
463;0.262
463.25;0.266
463.5;0.252
463.75;0.258
464;0.258
464.25;0.266
464.5;0.254
464.75;0.26
465;0.26
465.25;0.268
465.5;0.252
465.75;0.26
466;0.26
466.25;0.268
466.5;0.254
466.75;0.26
467;0.26
467.25;0.268
467.5;0.254
467.75;0.26
468;0.258
468.25;0.268
468.5;0.254
468.75;0.262
469;0.264
469.25;0.268
469.5;0.254
469.75;0.262
470;0.26
470.25;0.27
470.5;0.256
470.75;0.264
471;0.262
471.25;0.268
471.5;0.254
471.75;0.262
472;0.26
472.25;0.27
472.5;0.256
472.75;0.262
473;0.262
473.25;0.27
473.5;0.256
473.75;0.262
474;0.264
474.25;0.272
474.5;0.254
474.75;0.262
475;0.264
475.25;0.27
475.5;0.256
475.75;0.262
476;0.262
476.25;0.27
476.5;0.256
476.75;0.268
477;0.262
477.25;0.27
477.5;0.258
477.75;0.264
478;0.262
478.25;0.27
478.5;0.256
478.75;0.264
479;0.266
479.25;0.27
479.5;0.256
479.75;0.264
480;0.264
480.25;0.272
480.5;0.258
480.75;0.262
481;0.264
481.25;0.272
481.5;0.258
481.75;0.262
482;0.266
482.25;0.274
482.5;0.256
482.75;0.264
483;0.264
483.25;0.272
483.5;0.258
483.75;0.266
484;0.264
484.25;0.27
484.5;0.258
484.75;0.266
485;0.264
485.25;0.272
485.5;0.256
485.75;0.262
486;0.264
486.25;0.272
486.5;0.258
486.75;0.266
487;0.264
487.25;0.272
487.5;0.258
487.75;0.264
488;0.264
488.25;0.272
488.5;0.258
488.75;0.266
489;0.266
489.25;0.274
489.5;0.258
489.75;0.262
490;0.264
490.25;0.344
490.5;0.258
490.75;0.264
491;0.264
491.25;0.272
491.5;0.258
491.75;0.264
492;0.264
492.25;0.272
492.5;0.258
492.75;0.262
493;0.264
493.25;0.272
493.5;0.258
493.75;0.26
494;0.264
494.25;0.272
494.5;0.258
494.75;0.266
495;0.266
495.25;0.272
495.5;0.258
495.75;0.26
496;0.262
496.25;0.272
496.5;0.258
496.75;0.262
497;0.264
497.25;0.272
497.5;0.258
497.75;0.262
498;0.262
498.25;0.272
498.5;0.258
498.75;0.26
499;0.262
499.25;0.272
499.5;0.258
499.75;0.262
500;0.262
500.25;0.272
500.5;0.256
500.75;0.264
501;0.262
501.25;0.274
501.5;0.258
501.75;0.264
502;0.266
502.25;0.272
502.5;0.258
502.75;0.266
503;0.264
503.25;0.272
503.5;0.258
503.75;0.262
504;0.264
504.25;0.272
504.5;0.258
504.75;0.264
505;0.262
505.25;0.272
505.5;0.258
505.75;0.262
506;0.262
506.25;0.272
506.5;0.258
506.75;0.264
507;0.264
507.25;0.272
507.5;0.258
507.75;0.262
508;0.262
508.25;0.272
508.5;0.258
508.75;0.262
509;0.26
509.25;0.272
509.5;0.258
509.75;0.264
510;0.264
510.25;0.272
510.5;0.258
510.75;0.262
511;0.262
511.25;0.272
511.5;0.258
511.75;0.262
512;0.266
512.25;0.272
512.5;0.258
512.75;0.262
513;0.262
513.25;0.272
513.5;0.258
513.75;0.264
514;0.264
514.25;0.272
514.5;0.258
514.75;0.264
515;0.266
515.25;0.272
515.5;0.258
515.75;0.262
516;0.264
516.25;0.272
516.5;0.258
516.75;0.262
517;0.264
517.25;0.272
517.5;0.258
517.75;0.262
518;0.262
518.25;0.272
518.5;0.258
518.75;0.264
519;0.264
519.25;0.272
519.5;0.256
519.75;0.262
520;0.264
520.25;0.272
520.5;0.258
520.75;0.262
521;0.264
521.25;0.272
521.5;0.258
521.75;0.264
522;0.266
522.25;0.272
522.5;0.258
522.75;0.264
523;0.264
523.25;0.272
523.5;0.258
523.75;0.264
524;0.262
524.25;0.272
524.5;0.258
524.75;0.264
525;0.264
525.25;0.272
525.5;0.258
525.75;0.266
526;0.264
526.25;0.272
526.5;0.258
526.75;0.264
527;0.262
527.25;0.272
527.5;0.258
527.75;0.264
528;0.264
528.25;0.272
528.5;0.256
528.75;0.266
529;0.266
529.25;0.276
529.5;0.258
529.75;0.266
530;0.264
530.25;0.272
530.5;0.258
530.75;0.266
531;0.264
531.25;0.272
531.5;0.258
531.75;0.264
532;0.262
532.25;0.272
532.5;0.258
532.75;0.264
533;0.266
533.25;0.272
533.5;0.258
533.75;0.262
534;0.266
534.25;0.272
534.5;0.258
534.75;0.264
535;0.264
535.25;0.272
535.5;0.256
535.75;0.266
536;0.264
536.25;0.272
536.5;0.258
536.75;0.266
537;0.264
537.25;0.272
537.5;0.258
537.75;0.264
538;0.266
538.25;0.272
538.5;0.256
538.75;0.268
539;0.266
539.25;0.272
539.5;0.258
539.75;0.266
540;0.266
540.25;0.272
540.5;0.258
540.75;0.264
541;0.26
541.25;0.272
541.5;0.258
541.75;0.266
542;0.264
542.25;0.272
542.5;0.258
542.75;0.264
543;0.266
543.25;0.27
543.5;0.258
543.75;0.264
544;0.264
544.25;0.272
544.5;0.258
544.75;0.262
545;0.264
545.25;0.272
545.5;0.258
545.75;0.266
546;0.268
546.25;0.272
546.5;0.258
546.75;0.264
547;0.266
547.25;0.272
547.5;0.258
547.75;0.266
548;0.266
548.25;0.274
548.5;0.258
548.75;0.266
549;0.268
549.25;0.272
549.5;0.258
549.75;0.268
550;0.262
550.25;0.272
550.5;0.258
550.75;0.262
551;0.264
551.25;0.272
551.5;0.258
551.75;0.264
552;0.264
552.25;0.272
552.5;0.258
552.75;0.266
553;0.266
553.25;0.272
553.5;0.258
553.75;0.264
554;0.264
554.25;0.272
554.5;0.258
554.75;0.266
555;0.264
555.25;0.272
555.5;0.258
555.75;0.264
556;0.264
556.25;0.272
556.5;0.258
556.75;0.264
557;0.264
557.25;0.272
557.5;0.258
557.75;0.264
558;0.266
558.25;0.272
558.5;0.258
558.75;0.264
559;0.264
559.25;0.274
559.5;0.258
559.75;0.264
560;0.266
560.25;0.274
560.5;0.258
560.75;0.264
561;0.264
561.25;0.272
561.5;0.258
561.75;0.266
562;0.268
562.25;0.272
562.5;0.258
562.75;0.264
563;0.264
563.25;0.272
563.5;0.258
563.75;0.264
564;0.264
564.25;0.272
564.5;0.258
564.75;0.264
565;0.264
565.25;0.272
565.5;0.258
565.75;0.264
566;0.264
566.25;0.272
566.5;0.258
566.75;0.264
567;0.264
567.25;0.272
567.5;0.258
567.75;0.262
568;0.266
568.25;0.272
568.5;0.258
568.75;0.266
569;0.264
569.25;0.272
569.5;0.258
569.75;0.262
570;0.264
570.25;0.272
570.5;0.258
570.75;0.264
571;0.264
571.25;0.272
571.5;0.258
571.75;0.266
572;0.264
572.25;0.272
572.5;0.258
572.75;0.264
573;0.262
573.25;0.272
573.5;0.258
573.75;0.264
574;0.262
574.25;0.272
574.5;0.258
574.75;0.266
575;0.264
575.25;0.272
575.5;0.258
575.75;0.264
576;0.268
576.25;0.272
576.5;0.258
576.75;0.268
577;0.262
577.25;0.272
577.5;0.258
577.75;0.266
578;0.264
578.25;0.272
578.5;0.258
578.75;0.264
579;0.266
579.25;0.272
579.5;0.258
579.75;0.264
580;0.27
580.25;0.272
580.5;0.258
580.75;0.266
581;0.264
581.25;0.272
581.5;0.258
581.75;0.264
582;0.264
582.25;0.272
582.5;0.258
582.75;0.266
583;0.264
583.25;0.272
583.5;0.258
583.75;0.264
584;0.266
584.25;0.272
584.5;0.258
584.75;0.264
585;0.264
585.25;0.272
585.5;0.256
585.75;0.264
586;0.264
586.25;0.274
586.5;0.258
586.75;0.264
587;0.264
587.25;0.274
587.5;0.256
587.75;0.264
588;0.264
588.25;0.272
588.5;0.258
588.75;0.264
589;0.264
589.25;0.274
589.5;0.258
589.75;0.264
590;0.264
590.25;0.272
590.5;0.258
590.75;0.264
591;0.262
591.25;0.272
591.5;0.258
591.75;0.264
592;0.262
592.25;0.272
592.5;0.258
592.75;0.264
593;0.266
593.25;0.272
593.5;0.258
593.75;0.26
594;0.264
594.25;0.272
594.5;0.258
594.75;0.268
595;0.264
595.25;0.274
595.5;0.258
595.75;0.264
596;0.264
596.25;0.272
596.5;0.258
596.75;0.266
597;0.266
597.25;0.272
597.5;0.258
597.75;0.264
598;0.262
598.25;0.272
598.5;0.256
598.75;0.264
599;0.266
599.25;0.272
599.5;0.258
599.75;0.262
600;0.264
600.25;0.272
600.5;0.258
600.75;0.262
601;0.262
601.25;0.272
601.5;0.258
601.75;0.264
602;0.266
602.25;0.274
602.5;0.258
602.75;0.264
603;0.266
603.25;0.272
603.5;0.256
603.75;0.266
604;0.264
604.25;0.272
604.5;0.256
604.75;0.266
605;0.262
605.25;0.272
605.5;0.258
605.75;0.268
606;0.266
606.25;0.272
606.5;0.256
606.75;0.266
607;0.268
607.25;0.272
607.5;0.258
607.75;0.264
608;0.264
608.25;0.272
608.5;0.258
608.75;0.266
609;0.264
609.25;0.272
609.5;0.256
609.75;0.266
610;0.264
610.25;0.272
610.5;0.258
610.75;0.264
611;0.264
611.25;0.272
611.5;0.258
611.75;0.262
612;0.264
612.25;0.272
612.5;0.258
612.75;0.262
613;0.264
613.25;0.272
613.5;0.258
613.75;0.264
614;0.264
614.25;0.272
614.5;0.258
614.75;0.264
615;0.264
615.25;0.272
615.5;0.258
615.75;0.262
616;0.264
616.25;0.272
616.5;0.258
616.75;0.262
617;0.268
617.25;0.272
617.5;0.258
617.75;0.268
618;0.266
618.25;0.272
618.5;0.258
618.75;0.266
619;0.264
619.25;0.272
619.5;0.258
619.75;0.264
620;0.264
620.25;0.272
620.5;0.256
620.75;0.266
621;0.264
621.25;0.272
621.5;0.256
621.75;0.264
622;0.266
622.25;0.272
622.5;0.258
622.75;0.262
623;0.264
623.25;0.272
623.5;0.258
623.75;0.262
624;0.262
624.25;0.274
624.5;0.258
624.75;0.262
625;0.264
625.25;0.272
625.5;0.258
625.75;0.266
626;0.262
626.25;0.272
626.5;0.258
626.75;0.266
627;0.264
627.25;0.272
627.5;0.258
627.75;0.264
628;0.266
628.25;0.272
628.5;0.258
628.75;0.264
629;0.264
629.25;0.272
629.5;0.258
629.75;0.266
630;0.268
630.25;0.272
630.5;0.258
630.75;0.266
631;0.266
631.25;0.272
631.5;0.258
631.75;0.266
632;0.262
632.25;0.274
632.5;0.258
632.75;0.266
633;0.264
633.25;0.272
633.5;0.258
633.75;0.266
634;0.264
634.25;0.272
634.5;0.256
634.75;0.266
635;0.266
635.25;0.272
635.5;0.258
635.75;0.266
636;0.264
636.25;0.274
636.5;0.258
636.75;0.268
637;0.264
637.25;0.272
637.5;0.256
637.75;0.262
638;0.266
638.25;0.272
638.5;0.258
638.75;0.262
639;0.264
639.25;0.272
639.5;0.258
639.75;0.264
640;0.262
640.25;0.272
640.5;0.258
640.75;0.264
641;0.266
641.25;0.272
641.5;0.258
641.75;0.264
642;0.264
642.25;0.272
642.5;0.258
642.75;0.264
643;0.262
643.25;0.272
643.5;0.258
643.75;0.266
644;0.264
644.25;0.272
644.5;0.258
644.75;0.264
645;0.266
645.25;0.272
645.5;0.258
645.75;0.264
646;0.266
646.25;0.272
646.5;0.258
646.75;0.262
647;0.264
647.25;0.272
647.5;0.258
647.75;0.264
648;0.264
648.25;0.272
648.5;0.258
648.75;0.266
649;0.266
649.25;0.272
649.5;0.258
649.75;0.264
650;0.264
650.25;0.272
650.5;0.256
650.75;0.266
651;0.264
651.25;0.272
651.5;0.258
651.75;0.264
652;0.264
652.25;0.272
652.5;0.258
652.75;0.264
653;0.262
653.25;0.274
653.5;0.258
653.75;0.268
654;0.264
654.25;0.272
654.5;0.258
654.75;0.266
655;0.266
655.25;0.272
655.5;0.258
655.75;0.264
656;0.268
656.25;0.272
656.5;0.258
656.75;0.268
657;0.264
657.25;0.272
657.5;0.258
657.75;0.268
658;0.266
658.25;0.274
658.5;0.258
658.75;0.262
659;0.264
659.25;0.274
659.5;0.258
659.75;0.264
660;0.264
660.25;0.272
660.5;0.258
660.75;0.262
661;0.264
661.25;0.272
661.5;0.258
661.75;0.262
662;0.264
662.25;0.274
662.5;0.256
662.75;0.264
663;0.264
663.25;0.272
663.5;0.258
663.75;0.268
664;0.26
664.25;0.272
664.5;0.256
664.75;0.262
665;0.262
665.25;0.274
665.5;0.256
665.75;0.266
666;0.264
666.25;0.27
666.5;0.258
666.75;0.264
667;0.262
667.25;0.272
667.5;0.258
667.75;0.264
668;0.264
668.25;0.272
668.5;0.258
668.75;0.266
669;0.266
669.25;0.272
669.5;0.258
669.75;0.262
670;0.26
670.25;0.272
670.5;0.258
670.75;0.264
671;0.262
671.25;0.272
671.5;0.256
671.75;0.26
672;0.264
672.25;0.272
672.5;0.258
672.75;0.264
673;0.262
673.25;0.272
673.5;0.258
673.75;0.264
674;0.264
674.25;0.272
674.5;0.258
674.75;0.264
675;0.262
675.25;0.272
675.5;0.258
675.75;0.262
676;0.262
676.25;0.272
676.5;0.258
676.75;0.264
677;0.264
677.25;0.272
677.5;0.256
677.75;0.264
678;0.26
678.25;0.272
678.5;0.258
678.75;0.266
679;0.262
679.25;0.274
679.5;0.256
679.75;0.264
680;0.266
680.25;0.272
680.5;0.258
680.75;0.264
681;0.262
681.25;0.272
681.5;0.258
681.75;0.262
682;0.26
682.25;0.272
682.5;0.258
682.75;0.266
683;0.264
683.25;0.272
683.5;0.258
683.75;0.262
684;0.266
684.25;0.272
684.5;0.258
684.75;0.262
685;0.262
685.25;0.272
685.5;0.258
685.75;0.266
686;0.264
686.25;0.274
686.5;0.258
686.75;0.266
687;0.264
687.25;0.272
687.5;0.256
687.75;0.264
688;0.264
688.25;0.272
688.5;0.256
688.75;0.264
689;0.262
689.25;0.272
689.5;0.258
689.75;0.264
690;0.264
690.25;0.272
690.5;0.258
690.75;0.262
691;0.262
691.25;0.274
691.5;0.256
691.75;0.262
692;0.262
692.25;0.27
692.5;0.258
692.75;0.262
693;0.262
693.25;0.272
693.5;0.258
693.75;0.264
694;0.264
694.25;0.272
694.5;0.256
694.75;0.264
695;0.262
695.25;0.27
695.5;0.258
695.75;0.262
696;0.262
696.25;0.272
696.5;0.256
696.75;0.262
697;0.266
697.25;0.27
697.5;0.258
697.75;0.264
698;0.264
698.25;0.272
698.5;0.256
698.75;0.26
699;0.266
699.25;0.272
699.5;0.258
699.75;0.264
700;0.262
700.25;0.27
700.5;0.256
700.75;0.266
701;0.262
701.25;0.27
701.5;0.258
701.75;0.262
702;0.262
702.25;0.27
702.5;0.256
702.75;0.262
703;0.264
703.25;0.27
703.5;0.256
703.75;0.262
704;0.262
704.25;0.272
704.5;0.256
704.75;0.264
705;0.266
705.25;0.272
705.5;0.256
705.75;0.262
706;0.264
706.25;0.27
706.5;0.256
706.75;0.264
707;0.264
707.25;0.272
707.5;0.256
707.75;0.262
708;0.262
708.25;0.27
708.5;0.256
708.75;0.262
709;0.262
709.25;0.272
709.5;0.256
709.75;0.262
710;0.262
710.25;0.272
710.5;0.256
710.75;0.262
711;0.262
711.25;0.272
711.5;0.258
711.75;0.262
712;0.264
712.25;0.27
712.5;0.256
712.75;0.262
713;0.264
713.25;0.27
713.5;0.256
713.75;0.264
714;0.266
714.25;0.27
714.5;0.256
714.75;0.26
715;0.266
715.25;0.27
715.5;0.256
715.75;0.264
716;0.264
716.25;0.27
716.5;0.256
716.75;0.264
717;0.262
717.25;0.27
717.5;0.256
717.75;0.264
718;0.264
718.25;0.27
718.5;0.258
718.75;0.262
719;0.264
719.25;0.27
719.5;0.256
719.75;0.262
720;0.26
720.25;0.272
720.5;0.256
720.75;0.268
721;0.264
721.25;0.272
721.5;0.256
721.75;0.264
722;0.264
722.25;0.272
722.5;0.256
722.75;0.264
723;0.264
723.25;0.27
723.5;0.256
723.75;0.266
724;0.264
724.25;0.272
724.5;0.258
724.75;0.262
725;0.262
725.25;0.272
725.5;0.256
725.75;0.264
726;0.262
726.25;0.272
726.5;0.258
726.75;0.262
727;0.264
727.25;0.27
727.5;0.258
727.75;0.264
728;0.262
728.25;0.272
728.5;0.258
728.75;0.262
729;0.264
729.25;0.272
729.5;0.256
729.75;0.264
730;0.262
730.25;0.274
730.5;0.258
730.75;0.262
731;0.264
731.25;0.272
731.5;0.258
731.75;0.262
732;0.264
732.25;0.272
732.5;0.258
732.75;0.264
733;0.266
733.25;0.272
733.5;0.258
733.75;0.264
734;0.264
734.25;0.272
734.5;0.258
734.75;0.264
735;0.264
735.25;0.274
735.5;0.258
735.75;0.264
736;0.264
736.25;0.274
736.5;0.258
736.75;0.264
737;0.266
737.25;0.274
737.5;0.26
737.75;0.262
738;0.264
738.25;0.274
738.5;0.258
738.75;0.264
739;0.262
739.25;0.272
739.5;0.26
739.75;0.264
740;0.264
740.25;0.274
740.5;0.258
740.75;0.264
741;0.264
741.25;0.272
741.5;0.258
741.75;0.266
742;0.264
742.25;0.272
742.5;0.258
742.75;0.264
743;0.262
743.25;0.272
743.5;0.26
743.75;0.264
744;0.26
744.25;0.272
744.5;0.26
744.75;0.264
745;0.264
745.25;0.272
745.5;0.258
745.75;0.266
746;0.264
746.25;0.272
746.5;0.258
746.75;0.266
747;0.264
747.25;0.274
747.5;0.258
747.75;0.266
748;0.264
748.25;0.272
748.5;0.256
748.75;0.266
749;0.264
749.25;0.272
749.5;0.26
749.75;0.264
750;0.266
750.25;0.272
750.5;0.258
750.75;0.264
751;0.264
751.25;0.272
751.5;0.26
751.75;0.264
752;0.264
752.25;0.272
752.5;0.258
752.75;0.27
753;0.264
753.25;0.274
753.5;0.26
753.75;0.266
754;0.266
754.25;0.274
754.5;0.26
754.75;0.266
755;0.268
755.25;0.274
755.5;0.258
755.75;0.268
756;0.264
756.25;0.274
756.5;0.26
756.75;0.264
757;0.266
757.25;0.272
757.5;0.258
757.75;0.264
758;0.262
758.25;0.274
758.5;0.258
758.75;0.266
759;0.268
759.25;0.274
759.5;0.258
759.75;0.264
